# E (eV) pdos(E) 
 -5.910  0.000E+00
 -5.900  0.514E-02
 -5.890  0.204E-01
 -5.880  0.458E-01
 -5.870  0.748E-01
 -5.860  0.652E-01
 -5.850  0.720E-01
 -5.840  0.794E-01
 -5.830  0.870E-01
 -5.820  0.950E-01
 -5.810  0.103E+00
 -5.800  0.111E+00
 -5.790  0.117E+00
 -5.780  0.120E+00
 -5.770  0.121E+00
 -5.760  0.123E+00
 -5.750  0.126E+00
 -5.740  0.130E+00
 -5.730  0.134E+00
 -5.720  0.139E+00
 -5.710  0.143E+00
 -5.700  0.147E+00
 -5.690  0.151E+00
 -5.680  0.155E+00
 -5.670  0.160E+00
 -5.660  0.162E+00
 -5.650  0.163E+00
 -5.640  0.165E+00
 -5.630  0.167E+00
 -5.620  0.169E+00
 -5.610  0.172E+00
 -5.600  0.173E+00
 -5.590  0.176E+00
 -5.580  0.178E+00
 -5.570  0.180E+00
 -5.560  0.183E+00
 -5.550  0.185E+00
 -5.540  0.188E+00
 -5.530  0.191E+00
 -5.520  0.193E+00
 -5.510  0.196E+00
 -5.500  0.199E+00
 -5.490  0.202E+00
 -5.480  0.204E+00
 -5.470  0.204E+00
 -5.460  0.206E+00
 -5.450  0.206E+00
 -5.440  0.208E+00
 -5.430  0.210E+00
 -5.420  0.212E+00
 -5.410  0.214E+00
 -5.400  0.214E+00
 -5.390  0.216E+00
 -5.380  0.218E+00
 -5.370  0.220E+00
 -5.360  0.222E+00
 -5.350  0.224E+00
 -5.340  0.224E+00
 -5.330  0.226E+00
 -5.320  0.228E+00
 -5.310  0.230E+00
 -5.300  0.232E+00
 -5.290  0.234E+00
 -5.280  0.236E+00
 -5.270  0.238E+00
 -5.260  0.240E+00
 -5.250  0.242E+00
 -5.240  0.242E+00
 -5.230  0.244E+00
 -5.220  0.246E+00
 -5.210  0.246E+00
 -5.200  0.248E+00
 -5.190  0.248E+00
 -5.180  0.250E+00
 -5.170  0.250E+00
 -5.160  0.252E+00
 -5.150  0.254E+00
 -5.140  0.256E+00
 -5.130  0.256E+00
 -5.120  0.258E+00
 -5.110  0.260E+00
 -5.100  0.262E+00
 -5.090  0.262E+00
 -5.080  0.264E+00
 -5.070  0.266E+00
 -5.060  0.268E+00
 -5.050  0.268E+00
 -5.040  0.270E+00
 -5.030  0.272E+00
 -5.020  0.274E+00
 -5.010  0.274E+00
 -5.000  0.276E+00
 -4.990  0.278E+00
 -4.980  0.280E+00
 -4.970  0.280E+00
 -4.960  0.282E+00
 -4.950  0.282E+00
 -4.940  0.284E+00
 -4.930  0.286E+00
 -4.920  0.286E+00
 -4.910  0.288E+00
 -4.900  0.288E+00
 -4.890  0.290E+00
 -4.880  0.292E+00
 -4.870  0.292E+00
 -4.860  0.294E+00
 -4.850  0.296E+00
 -4.840  0.296E+00
 -4.830  0.298E+00
 -4.820  0.300E+00
 -4.810  0.300E+00
 -4.800  0.302E+00
 -4.790  0.304E+00
 -4.780  0.304E+00
 -4.770  0.306E+00
 -4.760  0.308E+00
 -4.750  0.310E+00
 -4.740  0.310E+00
 -4.730  0.312E+00
 -4.720  0.314E+00
 -4.710  0.316E+00
 -4.700  0.316E+00
 -4.690  0.318E+00
 -4.680  0.320E+00
 -4.670  0.322E+00
 -4.660  0.322E+00
 -4.650  0.324E+00
 -4.640  0.326E+00
 -4.630  0.326E+00
 -4.620  0.328E+00
 -4.610  0.330E+00
 -4.600  0.330E+00
 -4.590  0.332E+00
 -4.580  0.334E+00
 -4.570  0.334E+00
 -4.560  0.336E+00
 -4.550  0.338E+00
 -4.540  0.338E+00
 -4.530  0.340E+00
 -4.520  0.342E+00
 -4.510  0.344E+00
 -4.500  0.344E+00
 -4.490  0.346E+00
 -4.480  0.348E+00
 -4.470  0.350E+00
 -4.460  0.350E+00
 -4.450  0.352E+00
 -4.440  0.354E+00
 -4.430  0.356E+00
 -4.420  0.358E+00
 -4.410  0.360E+00
 -4.400  0.360E+00
 -4.390  0.362E+00
 -4.380  0.364E+00
 -4.370  0.366E+00
 -4.360  0.368E+00
 -4.350  0.370E+00
 -4.340  0.372E+00
 -4.330  0.374E+00
 -4.320  0.374E+00
 -4.310  0.376E+00
 -4.300  0.378E+00
 -4.290  0.380E+00
 -4.280  0.382E+00
 -4.270  0.384E+00
 -4.260  0.386E+00
 -4.250  0.388E+00
 -4.240  0.388E+00
 -4.230  0.390E+00
 -4.220  0.392E+00
 -4.210  0.394E+00
 -4.200  0.396E+00
 -4.190  0.398E+00
 -4.180  0.400E+00
 -4.170  0.402E+00
 -4.160  0.404E+00
 -4.150  0.408E+00
 -4.140  0.410E+00
 -4.130  0.412E+00
 -4.120  0.414E+00
 -4.110  0.416E+00
 -4.100  0.418E+00
 -4.090  0.420E+00
 -4.080  0.422E+00
 -4.070  0.426E+00
 -4.060  0.428E+00
 -4.050  0.430E+00
 -4.040  0.434E+00
 -4.030  0.436E+00
 -4.020  0.438E+00
 -4.010  0.442E+00
 -4.000  0.444E+00
 -3.990  0.448E+00
 -3.980  0.450E+00
 -3.970  0.454E+00
 -3.960  0.456E+00
 -3.950  0.460E+00
 -3.940  0.462E+00
 -3.930  0.466E+00
 -3.920  0.470E+00
 -3.910  0.472E+00
 -3.900  0.476E+00
 -3.890  0.480E+00
 -3.880  0.484E+00
 -3.870  0.488E+00
 -3.860  0.492E+00
 -3.850  0.498E+00
 -3.840  0.502E+00
 -3.830  0.508E+00
 -3.820  0.512E+00
 -3.810  0.518E+00
 -3.800  0.524E+00
 -3.790  0.530E+00
 -3.780  0.536E+00
 -3.770  0.544E+00
 -3.760  0.552E+00
 -3.750  0.560E+00
 -3.740  0.568E+00
 -3.730  0.578E+00
 -3.720  0.590E+00
 -3.710  0.612E+00
 -3.700  0.644E+00
 -3.690  0.688E+00
 -3.680  0.720E+00
 -3.670  0.656E+00
 -3.660  0.650E+00
 -3.650  0.648E+00
 -3.640  0.648E+00
 -3.630  0.648E+00
 -3.620  0.648E+00
 -3.610  0.648E+00
 -3.600  0.642E+00
 -3.590  0.632E+00
 -3.580  0.618E+00
 -3.570  0.612E+00
 -3.560  0.616E+00
 -3.550  0.620E+00
 -3.540  0.624E+00
 -3.530  0.628E+00
 -3.520  0.630E+00
 -3.510  0.628E+00
 -3.500  0.624E+00
 -3.490  0.618E+00
 -3.480  0.612E+00
 -3.470  0.604E+00
 -3.460  0.596E+00
 -3.450  0.592E+00
 -3.440  0.590E+00
 -3.430  0.586E+00
 -3.420  0.582E+00
 -3.410  0.580E+00
 -3.400  0.576E+00
 -3.390  0.574E+00
 -3.380  0.572E+00
 -3.370  0.570E+00
 -3.360  0.568E+00
 -3.350  0.566E+00
 -3.340  0.564E+00
 -3.330  0.560E+00
 -3.320  0.558E+00
 -3.310  0.554E+00
 -3.300  0.550E+00
 -3.290  0.546E+00
 -3.280  0.540E+00
 -3.270  0.534E+00
 -3.260  0.530E+00
 -3.250  0.528E+00
 -3.240  0.526E+00
 -3.230  0.524E+00
 -3.220  0.522E+00
 -3.210  0.520E+00
 -3.200  0.518E+00
 -3.190  0.516E+00
 -3.180  0.514E+00
 -3.170  0.512E+00
 -3.160  0.510E+00
 -3.150  0.510E+00
 -3.140  0.508E+00
 -3.130  0.504E+00
 -3.120  0.502E+00
 -3.110  0.498E+00
 -3.100  0.496E+00
 -3.090  0.492E+00
 -3.080  0.488E+00
 -3.070  0.482E+00
 -3.060  0.478E+00
 -3.050  0.474E+00
 -3.040  0.470E+00
 -3.030  0.468E+00
 -3.020  0.464E+00
 -3.010  0.462E+00
 -3.000  0.460E+00
 -2.990  0.456E+00
 -2.980  0.454E+00
 -2.970  0.452E+00
 -2.960  0.450E+00
 -2.950  0.448E+00
 -2.940  0.446E+00
 -2.930  0.444E+00
 -2.920  0.440E+00
 -2.910  0.438E+00
 -2.900  0.434E+00
 -2.890  0.432E+00
 -2.880  0.430E+00
 -2.870  0.428E+00
 -2.860  0.424E+00
 -2.850  0.422E+00
 -2.840  0.420E+00
 -2.830  0.416E+00
 -2.820  0.414E+00
 -2.810  0.412E+00
 -2.800  0.408E+00
 -2.790  0.404E+00
 -2.780  0.400E+00
 -2.770  0.396E+00
 -2.760  0.394E+00
 -2.750  0.390E+00
 -2.740  0.388E+00
 -2.730  0.384E+00
 -2.720  0.382E+00
 -2.710  0.380E+00
 -2.700  0.376E+00
 -2.690  0.374E+00
 -2.680  0.372E+00
 -2.670  0.370E+00
 -2.660  0.366E+00
 -2.650  0.364E+00
 -2.640  0.362E+00
 -2.630  0.360E+00
 -2.620  0.356E+00
 -2.610  0.354E+00
 -2.600  0.352E+00
 -2.590  0.348E+00
 -2.580  0.346E+00
 -2.570  0.342E+00
 -2.560  0.340E+00
 -2.550  0.338E+00
 -2.540  0.334E+00
 -2.530  0.332E+00
 -2.520  0.328E+00
 -2.510  0.324E+00
 -2.500  0.322E+00
 -2.490  0.318E+00
 -2.480  0.314E+00
 -2.470  0.312E+00
 -2.460  0.308E+00
 -2.450  0.306E+00
 -2.440  0.304E+00
 -2.430  0.300E+00
 -2.420  0.296E+00
 -2.410  0.294E+00
 -2.400  0.292E+00
 -2.390  0.290E+00
 -2.380  0.288E+00
 -2.370  0.286E+00
 -2.360  0.284E+00
 -2.350  0.282E+00
 -2.340  0.280E+00
 -2.330  0.278E+00
 -2.320  0.272E+00
 -2.310  0.266E+00
 -2.300  0.262E+00
 -2.290  0.258E+00
 -2.280  0.256E+00
 -2.270  0.256E+00
 -2.260  0.254E+00
 -2.250  0.254E+00
 -2.240  0.250E+00
 -2.230  0.246E+00
 -2.220  0.242E+00
 -2.210  0.240E+00
 -2.200  0.240E+00
 -2.190  0.240E+00
 -2.180  0.240E+00
 -2.170  0.238E+00
 -2.160  0.238E+00
 -2.150  0.228E+00
 -2.140  0.210E+00
 -2.130  0.194E+00
 -2.120  0.181E+00
 -2.110  0.169E+00
 -2.100  0.158E+00
 -2.090  0.148E+00
 -2.080  0.138E+00
 -2.070  0.128E+00
 -2.060  0.119E+00
 -2.050  0.110E+00
 -2.040  0.101E+00
 -2.030  0.934E-01
 -2.020  0.858E-01
 -2.010  0.784E-01
 -2.000  0.716E-01
 -1.990  0.650E-01
 -1.980  0.590E-01
 -1.970  0.532E-01
 -1.960  0.476E-01
 -1.950  0.424E-01
 -1.940  0.374E-01
 -1.930  0.328E-01
 -1.920  0.284E-01
 -1.910  0.246E-01
 -1.900  0.218E-01
 -1.890  0.196E-01
 -1.880  0.179E-01
 -1.870  0.166E-01
 -1.860  0.158E-01
 -1.850  0.155E-01
 -1.840  0.157E-01
 -1.830  0.163E-01
 -1.820  0.174E-01
 -1.810  0.189E-01
 -1.800  0.212E-01
 -1.790  0.238E-01
 -1.780  0.274E-01
 -1.770  0.320E-01
 -1.760  0.366E-01
 -1.750  0.414E-01
 -1.740  0.464E-01
 -1.730  0.516E-01
 -1.720  0.568E-01
 -1.710  0.624E-01
 -1.700  0.678E-01
 -1.690  0.736E-01
 -1.680  0.794E-01
 -1.670  0.854E-01
 -1.660  0.912E-01
 -1.650  0.972E-01
 -1.640  0.103E+00
 -1.630  0.109E+00
 -1.620  0.115E+00
 -1.610  0.121E+00
 -1.600  0.127E+00
 -1.590  0.133E+00
 -1.580  0.139E+00
 -1.570  0.145E+00
 -1.560  0.151E+00
 -1.550  0.157E+00
 -1.540  0.163E+00
 -1.530  0.168E+00
 -1.520  0.174E+00
 -1.510  0.179E+00
 -1.500  0.183E+00
 -1.490  0.187E+00
 -1.480  0.190E+00
 -1.470  0.194E+00
 -1.460  0.196E+00
 -1.450  0.200E+00
 -1.440  0.200E+00
 -1.430  0.204E+00
 -1.420  0.206E+00
 -1.410  0.210E+00
 -1.400  0.214E+00
 -1.390  0.218E+00
 -1.380  0.222E+00
 -1.370  0.228E+00
 -1.360  0.232E+00
 -1.350  0.236E+00
 -1.340  0.238E+00
 -1.330  0.240E+00
 -1.320  0.242E+00
 -1.310  0.246E+00
 -1.300  0.248E+00
 -1.290  0.250E+00
 -1.280  0.252E+00
 -1.270  0.254E+00
 -1.260  0.258E+00
 -1.250  0.260E+00
 -1.240  0.262E+00
 -1.230  0.266E+00
 -1.220  0.270E+00
 -1.210  0.272E+00
 -1.200  0.274E+00
 -1.190  0.278E+00
 -1.180  0.282E+00
 -1.170  0.284E+00
 -1.160  0.288E+00
 -1.150  0.292E+00
 -1.140  0.298E+00
 -1.130  0.304E+00
 -1.120  0.310E+00
 -1.110  0.314E+00
 -1.100  0.320E+00
 -1.090  0.324E+00
 -1.080  0.328E+00
 -1.070  0.332E+00
 -1.060  0.336E+00
 -1.050  0.338E+00
 -1.040  0.342E+00
 -1.030  0.346E+00
 -1.020  0.350E+00
 -1.010  0.354E+00
 -1.000  0.362E+00
 -0.990  0.370E+00
 -0.980  0.382E+00
 -0.970  0.408E+00
 -0.960  0.444E+00
 -0.950  0.470E+00
 -0.940  0.500E+00
 -0.930  0.524E+00
 -0.920  0.544E+00
 -0.910  0.562E+00
 -0.900  0.638E+00
 -0.890  0.664E+00
 -0.880  0.706E+00
 -0.870  0.778E+00
 -0.860  0.880E+00
 -0.850  0.866E+00
 -0.840  0.788E+00
 -0.830  0.722E+00
 -0.820  0.668E+00
 -0.810  0.624E+00
 -0.800  0.590E+00
 -0.790  0.562E+00
 -0.780  0.540E+00
 -0.770  0.522E+00
 -0.760  0.508E+00
 -0.750  0.494E+00
 -0.740  0.482E+00
 -0.730  0.470E+00
 -0.720  0.460E+00
 -0.710  0.452E+00
 -0.700  0.442E+00
 -0.690  0.434E+00
 -0.680  0.426E+00
 -0.670  0.418E+00
 -0.660  0.410E+00
 -0.650  0.404E+00
 -0.640  0.398E+00
 -0.630  0.390E+00
 -0.620  0.384E+00
 -0.610  0.378E+00
 -0.600  0.372E+00
 -0.590  0.366E+00
 -0.580  0.362E+00
 -0.570  0.356E+00
 -0.560  0.350E+00
 -0.550  0.346E+00
 -0.540  0.342E+00
 -0.530  0.340E+00
 -0.520  0.336E+00
 -0.510  0.332E+00
 -0.500  0.330E+00
 -0.490  0.326E+00
 -0.480  0.324E+00
 -0.470  0.320E+00
 -0.460  0.318E+00
 -0.450  0.314E+00
 -0.440  0.312E+00
 -0.430  0.308E+00
 -0.420  0.306E+00
 -0.410  0.302E+00
 -0.400  0.300E+00
 -0.390  0.298E+00
 -0.380  0.294E+00
 -0.370  0.292E+00
 -0.360  0.290E+00
 -0.350  0.286E+00
 -0.340  0.284E+00
 -0.330  0.282E+00
 -0.320  0.280E+00
 -0.310  0.276E+00
 -0.300  0.274E+00
 -0.290  0.272E+00
 -0.280  0.268E+00
 -0.270  0.266E+00
 -0.260  0.264E+00
 -0.250  0.262E+00
 -0.240  0.260E+00
 -0.230  0.258E+00
 -0.220  0.254E+00
 -0.210  0.252E+00
 -0.200  0.250E+00
 -0.190  0.248E+00
 -0.180  0.244E+00
 -0.170  0.242E+00
 -0.160  0.240E+00
 -0.150  0.238E+00
 -0.140  0.236E+00
 -0.130  0.234E+00
 -0.120  0.234E+00
 -0.110  0.232E+00
 -0.100  0.230E+00
 -0.090  0.230E+00
 -0.080  0.228E+00
 -0.070  0.226E+00
 -0.060  0.224E+00
 -0.050  0.224E+00
 -0.040  0.222E+00
 -0.030  0.220E+00
 -0.020  0.220E+00
 -0.010  0.218E+00
  0.000  0.216E+00
  0.010  0.214E+00
  0.020  0.214E+00
  0.030  0.212E+00
  0.040  0.210E+00
  0.050  0.210E+00
  0.060  0.208E+00
  0.070  0.206E+00
  0.080  0.204E+00
  0.090  0.204E+00
  0.100  0.202E+00
  0.110  0.200E+00
  0.120  0.200E+00
  0.130  0.198E+00
  0.140  0.197E+00
  0.150  0.195E+00
  0.160  0.194E+00
  0.170  0.193E+00
  0.180  0.191E+00
  0.190  0.190E+00
  0.200  0.188E+00
  0.210  0.187E+00
  0.220  0.185E+00
  0.230  0.183E+00
  0.240  0.182E+00
  0.250  0.180E+00
  0.260  0.179E+00
  0.270  0.178E+00
  0.280  0.176E+00
  0.290  0.175E+00
  0.300  0.173E+00
  0.310  0.172E+00
  0.320  0.171E+00
  0.330  0.169E+00
  0.340  0.168E+00
  0.350  0.168E+00
  0.360  0.167E+00
  0.370  0.166E+00
  0.380  0.165E+00
  0.390  0.164E+00
  0.400  0.163E+00
  0.410  0.162E+00
  0.420  0.161E+00
  0.430  0.161E+00
  0.440  0.160E+00
  0.450  0.159E+00
  0.460  0.158E+00
  0.470  0.157E+00
  0.480  0.156E+00
  0.490  0.155E+00
  0.500  0.154E+00
  0.510  0.154E+00
  0.520  0.153E+00
  0.530  0.152E+00
  0.540  0.151E+00
  0.550  0.150E+00
  0.560  0.149E+00
  0.570  0.148E+00
  0.580  0.147E+00
  0.590  0.147E+00
  0.600  0.146E+00
  0.610  0.145E+00
  0.620  0.144E+00
  0.630  0.143E+00
  0.640  0.142E+00
  0.650  0.141E+00
  0.660  0.140E+00
  0.670  0.139E+00
  0.680  0.138E+00
  0.690  0.137E+00
  0.700  0.136E+00
  0.710  0.135E+00
  0.720  0.134E+00
  0.730  0.133E+00
  0.740  0.132E+00
  0.750  0.131E+00
  0.760  0.130E+00
  0.770  0.129E+00
  0.780  0.128E+00
  0.790  0.127E+00
  0.800  0.125E+00
  0.810  0.124E+00
  0.820  0.123E+00
  0.830  0.122E+00
  0.840  0.122E+00
  0.850  0.121E+00
  0.860  0.120E+00
  0.870  0.120E+00
  0.880  0.119E+00
  0.890  0.119E+00
  0.900  0.118E+00
  0.910  0.117E+00
  0.920  0.117E+00
  0.930  0.116E+00
  0.940  0.116E+00
  0.950  0.115E+00
  0.960  0.114E+00
  0.970  0.114E+00
  0.980  0.113E+00
  0.990  0.113E+00
  1.000  0.112E+00
  1.010  0.111E+00
  1.020  0.111E+00
  1.030  0.110E+00
  1.040  0.110E+00
  1.050  0.109E+00
  1.060  0.108E+00
  1.070  0.108E+00
  1.080  0.107E+00
  1.090  0.106E+00
  1.100  0.106E+00
  1.110  0.105E+00
  1.120  0.105E+00
  1.130  0.104E+00
  1.140  0.103E+00
  1.150  0.103E+00
  1.160  0.102E+00
  1.170  0.101E+00
  1.180  0.101E+00
  1.190  0.100E+00
  1.200  0.996E-01
  1.210  0.988E-01
  1.220  0.982E-01
  1.230  0.976E-01
  1.240  0.970E-01
  1.250  0.962E-01
  1.260  0.956E-01
  1.270  0.948E-01
  1.280  0.940E-01
  1.290  0.932E-01
  1.300  0.922E-01
  1.310  0.914E-01
  1.320  0.908E-01
  1.330  0.900E-01
  1.340  0.894E-01
  1.350  0.888E-01
  1.360  0.882E-01
  1.370  0.872E-01
  1.380  0.864E-01
  1.390  0.858E-01
  1.400  0.850E-01
  1.410  0.844E-01
  1.420  0.838E-01
  1.430  0.834E-01
  1.440  0.830E-01
  1.450  0.826E-01
  1.460  0.822E-01
  1.470  0.816E-01
  1.480  0.812E-01
  1.490  0.808E-01
  1.500  0.804E-01
  1.510  0.800E-01
  1.520  0.796E-01
  1.530  0.792E-01
  1.540  0.788E-01
  1.550  0.784E-01
  1.560  0.782E-01
  1.570  0.780E-01
  1.580  0.782E-01
  1.590  0.784E-01
  1.600  0.790E-01
  1.610  0.796E-01
  1.620  0.810E-01
  1.630  0.822E-01
  1.640  0.820E-01
  1.650  0.820E-01
  1.660  0.822E-01
  1.670  0.824E-01
  1.680  0.828E-01
  1.690  0.834E-01
  1.700  0.840E-01
  1.710  0.846E-01
  1.720  0.852E-01
  1.730  0.860E-01
  1.740  0.866E-01
  1.750  0.876E-01
  1.760  0.884E-01
  1.770  0.896E-01
  1.780  0.908E-01
  1.790  0.920E-01
  1.800  0.936E-01
  1.810  0.952E-01
  1.820  0.972E-01
  1.830  0.978E-01
  1.840  0.982E-01
  1.850  0.986E-01
  1.860  0.992E-01
  1.870  0.996E-01
  1.880  0.100E+00
  1.890  0.100E+00
  1.900  0.101E+00
  1.910  0.101E+00
  1.920  0.101E+00
  1.930  0.102E+00
  1.940  0.101E+00
  1.950  0.101E+00
  1.960  0.100E+00
  1.970  0.992E-01
  1.980  0.990E-01
  1.990  0.990E-01
  2.000  0.994E-01
  2.010  0.996E-01
  2.020  0.998E-01
  2.030  0.100E+00
  2.040  0.100E+00
  2.050  0.101E+00
  2.060  0.101E+00
  2.070  0.101E+00
  2.080  0.102E+00
  2.090  0.102E+00
  2.100  0.102E+00
  2.110  0.103E+00
  2.120  0.103E+00
  2.130  0.103E+00
  2.140  0.103E+00
  2.150  0.103E+00
  2.160  0.103E+00
  2.170  0.103E+00
  2.180  0.104E+00
  2.190  0.104E+00
  2.200  0.103E+00
  2.210  0.103E+00
  2.220  0.102E+00
  2.230  0.102E+00
  2.240  0.102E+00
  2.250  0.102E+00
  2.260  0.102E+00
  2.270  0.102E+00
  2.280  0.101E+00
  2.290  0.101E+00
  2.300  0.101E+00
  2.310  0.101E+00
  2.320  0.101E+00
  2.330  0.101E+00
  2.340  0.102E+00
  2.350  0.102E+00
  2.360  0.102E+00
  2.370  0.102E+00
  2.380  0.102E+00
  2.390  0.102E+00
  2.400  0.102E+00
  2.410  0.102E+00
  2.420  0.102E+00
  2.430  0.101E+00
  2.440  0.101E+00
  2.450  0.101E+00
  2.460  0.101E+00
  2.470  0.101E+00
  2.480  0.101E+00
  2.490  0.100E+00
  2.500  0.100E+00
  2.510  0.998E-01
  2.520  0.996E-01
  2.530  0.100E+00
  2.540  0.100E+00
  2.550  0.990E-01
  2.560  0.984E-01
  2.570  0.980E-01
  2.580  0.978E-01
  2.590  0.976E-01
  2.600  0.974E-01
  2.610  0.974E-01
  2.620  0.972E-01
  2.630  0.968E-01
  2.640  0.960E-01
  2.650  0.958E-01
  2.660  0.956E-01
  2.670  0.952E-01
  2.680  0.948E-01
  2.690  0.944E-01
  2.700  0.942E-01
  2.710  0.940E-01
  2.720  0.936E-01
  2.730  0.934E-01
  2.740  0.932E-01
  2.750  0.930E-01
  2.760  0.928E-01
  2.770  0.926E-01
  2.780  0.924E-01
  2.790  0.922E-01
  2.800  0.920E-01
  2.810  0.918E-01
  2.820  0.916E-01
  2.830  0.914E-01
  2.840  0.910E-01
  2.850  0.908E-01
  2.860  0.904E-01
  2.870  0.902E-01
  2.880  0.910E-01
  2.890  0.902E-01
  2.900  0.896E-01
  2.910  0.894E-01
  2.920  0.892E-01
  2.930  0.890E-01
  2.940  0.888E-01
  2.950  0.886E-01
  2.960  0.882E-01
  2.970  0.878E-01
  2.980  0.874E-01
  2.990  0.870E-01
  3.000  0.866E-01
  3.010  0.862E-01
  3.020  0.858E-01
  3.030  0.856E-01
  3.040  0.852E-01
  3.050  0.848E-01
  3.060  0.846E-01
  3.070  0.844E-01
  3.080  0.840E-01
  3.090  0.838E-01
  3.100  0.834E-01
  3.110  0.830E-01
  3.120  0.828E-01
  3.130  0.824E-01
  3.140  0.820E-01
  3.150  0.818E-01
  3.160  0.814E-01
  3.170  0.808E-01
  3.180  0.804E-01
  3.190  0.798E-01
  3.200  0.794E-01
  3.210  0.788E-01
  3.220  0.782E-01
  3.230  0.776E-01
  3.240  0.772E-01
  3.250  0.766E-01
  3.260  0.762E-01
  3.270  0.758E-01
  3.280  0.752E-01
  3.290  0.748E-01
  3.300  0.742E-01
  3.310  0.734E-01
  3.320  0.726E-01
  3.330  0.720E-01
  3.340  0.716E-01
  3.350  0.710E-01
  3.360  0.706E-01
  3.370  0.700E-01
  3.380  0.696E-01
  3.390  0.692E-01
  3.400  0.688E-01
  3.410  0.684E-01
  3.420  0.680E-01
  3.430  0.676E-01
  3.440  0.672E-01
  3.450  0.668E-01
  3.460  0.664E-01
  3.470  0.660E-01
  3.480  0.656E-01
  3.490  0.652E-01
  3.500  0.650E-01
  3.510  0.646E-01
  3.520  0.642E-01
  3.530  0.640E-01
  3.540  0.636E-01
  3.550  0.634E-01
  3.560  0.632E-01
  3.570  0.630E-01
  3.580  0.628E-01
  3.590  0.624E-01
  3.600  0.620E-01
  3.610  0.618E-01
  3.620  0.614E-01
  3.630  0.610E-01
  3.640  0.606E-01
  3.650  0.602E-01
  3.660  0.600E-01
  3.670  0.596E-01
  3.680  0.592E-01
  3.690  0.588E-01
  3.700  0.584E-01
  3.710  0.580E-01
  3.720  0.576E-01
  3.730  0.572E-01
  3.740  0.568E-01
  3.750  0.564E-01
  3.760  0.560E-01
  3.770  0.556E-01
  3.780  0.552E-01
  3.790  0.548E-01
  3.800  0.542E-01
  3.810  0.538E-01
  3.820  0.534E-01
  3.830  0.530E-01
  3.840  0.524E-01
  3.850  0.520E-01
  3.860  0.514E-01
  3.870  0.510E-01
  3.880  0.506E-01
  3.890  0.500E-01
  3.900  0.496E-01
  3.910  0.490E-01
  3.920  0.486E-01
  3.930  0.482E-01
  3.940  0.476E-01
  3.950  0.472E-01
  3.960  0.466E-01
  3.970  0.462E-01
  3.980  0.456E-01
  3.990  0.452E-01
  4.000  0.448E-01
  4.010  0.444E-01
  4.020  0.438E-01
  4.030  0.434E-01
  4.040  0.430E-01
  4.050  0.426E-01
  4.060  0.422E-01
  4.070  0.416E-01
  4.080  0.412E-01
  4.090  0.406E-01
  4.100  0.402E-01
  4.110  0.396E-01
  4.120  0.392E-01
  4.130  0.386E-01
  4.140  0.382E-01
  4.150  0.376E-01
  4.160  0.372E-01
  4.170  0.368E-01
  4.180  0.362E-01
  4.190  0.358E-01
  4.200  0.354E-01
  4.210  0.350E-01
  4.220  0.344E-01
  4.230  0.340E-01
  4.240  0.336E-01
  4.250  0.332E-01
  4.260  0.328E-01
  4.270  0.324E-01
  4.280  0.320E-01
  4.290  0.318E-01
  4.300  0.316E-01
  4.310  0.316E-01
  4.320  0.312E-01
  4.330  0.308E-01
  4.340  0.306E-01
  4.350  0.302E-01
  4.360  0.298E-01
  4.370  0.292E-01
  4.380  0.288E-01
  4.390  0.284E-01
  4.400  0.278E-01
  4.410  0.274E-01
  4.420  0.270E-01
  4.430  0.266E-01
  4.440  0.260E-01
  4.450  0.256E-01
  4.460  0.252E-01
  4.470  0.248E-01
  4.480  0.244E-01
  4.490  0.240E-01
  4.500  0.236E-01
  4.510  0.234E-01
  4.520  0.230E-01
  4.530  0.226E-01
  4.540  0.222E-01
  4.550  0.220E-01
  4.560  0.216E-01
  4.570  0.212E-01
  4.580  0.210E-01
  4.590  0.206E-01
